File: Example Date/TGA Me/!$YN045.txt
                                                                05.12.2024 20:04
________________________________________________________________________________

Curve Name:
  !$YN045
  Sample Weight
Curve Values:
          Index              t             Ts             Tr          Value
                           [s]           [°C]           [°C]            [%]
              0              0         33.488         25.000        99.5804
             32             32         37.877         30.333        100.816
             64             64         43.047         35.667        100.953
             96             96         48.182         41.000        101.052
            128            128         53.320         46.333        101.117
            160            160         58.501         51.667        101.179
            192            192         63.673         57.000        101.233
            224            224         68.875         62.333        101.294
            256            256         74.080         67.667        101.352
            288            288         79.222         73.000        101.393
            320            320         83.773         78.333        101.446
            352            352         89.250         83.667        101.465
            384            384         94.879         89.000        101.495
            416            416        100.382         94.333        101.525
            448            448        105.854         99.667        101.557
            480            480        111.314        105.000         101.59
            512            512        116.786        110.333        101.624
            544            544        122.226        115.667        101.657
            576            576        127.698        121.000        101.692
            608            608        133.160        126.333        101.728
            640            640        138.627        131.667        101.761
            672            672        144.090        137.000        101.799
            704            704        149.576        142.333        101.835
            736            736        155.051        147.667        101.871
            768            768        160.527        153.000        101.908
            800            800        166.017        158.333         101.94
            832            832        171.501        163.667        101.975
            864            864        176.981        169.000        102.006
            896            896        182.486        174.333        102.038
            928            928        187.984        179.667        102.066
            960            960        193.487        185.000        102.095
            992            992        198.986        190.333        102.122
           1024           1024        204.470        195.667        102.144
           1056           1056        209.971        201.000        102.164
           1088           1088        215.488        206.333        102.179
           1120           1120        220.983        211.667        102.192
           1152           1152        226.484        217.000        102.198
           1184           1184        231.983        222.333        102.199
           1216           1216        237.489        227.667        102.198
           1248           1248        242.984        233.000        102.192
           1280           1280        248.479        238.333        102.176
           1312           1312        253.970        243.667        102.158
           1344           1344        259.461        249.000        102.137
           1376           1376        264.968        254.333        102.106
           1408           1408        270.450        259.667        102.067
           1440           1440        275.932        265.000         102.02
           1472           1472        281.416        270.333        101.964
           1504           1504        286.890        275.667        101.892
           1536           1536        292.358        281.000        101.814
           1568           1568        297.850        286.333        101.722
           1600           1600        303.327        291.667        101.625
           1632           1632        308.802        297.000        101.524
           1664           1664        314.267        302.333        101.415
           1696           1696        319.729        307.667        101.315
           1728           1728        325.193        313.000        101.218
           1760           1760        330.668        318.333        101.128
           1792           1792        336.120        323.667        101.045
           1824           1824        341.589        329.000        100.954
           1856           1856        347.037        334.333        100.855
           1888           1888        352.501        339.667        100.738
           1920           1920        357.942        345.000          100.6
           1952           1952        363.404        350.333        100.441
           1984           1984        368.845        355.667        100.249
           2016           2016        374.308        361.000        100.013
           2048           2048        379.758        366.333        99.7208
           2080           2080        385.212        371.667        99.3607
           2112           2112        390.659        377.000        98.9016
           2144           2144        396.107        382.333        98.3085
           2176           2176        401.553        387.667         97.514
           2208           2208        406.983        393.000        96.4237
           2240           2240        412.425        398.333        94.8686
           2272           2272        417.856        403.667        92.5915
           2304           2304        423.286        409.000        89.3263
           2336           2336        428.722        414.333        84.7603
           2368           2368        434.129        419.667        78.7337
           2400           2400        439.558        425.000        71.2501
           2432           2432        444.991        430.333         62.399
           2464           2464        450.416        435.667        52.5859
           2496           2496        455.874        441.000         42.186
           2528           2528        461.353        446.333        31.7592
           2560           2560        466.857        451.667         22.153
           2592           2592        472.423        457.000        14.2657
           2624           2624        477.997        462.333        8.81899
           2656           2656        483.607        467.667        5.86654
           2688           2688        489.177        473.000        4.75702
           2720           2720        494.747        478.333        4.48087
           2752           2752        500.309        483.667        4.44214
           2784           2784        505.789        489.000        4.43782
           2816           2816        511.271        494.333        4.44892
           2848           2848        516.732        499.667        4.46051
           2880           2880        522.175        505.000        4.47478
           2912           2912        527.611        510.333        4.49186
           2944           2944        533.046        515.667        4.50489
           2976           2976        538.466        521.000        4.52205
           3008           3008        543.873        526.333        4.53429
           3040           3040        549.272        531.667         4.5489
           3072           3072        554.684        537.000        4.56384
           3104           3104        560.072        542.333        4.56905
           3136           3136        565.480        547.667        4.57521

Results:
  Step	-95.1037 %
  	-11.0035 mg
  Onset	426.22 °C
  Inflect. Pt.	456.38 °C
  Endset	475.48 °C
  Midpoint	450.25 °C
  Angle Midpoint	450.94 °C

Sample:
  YN045, 11.5700 mg

________________________________________________________________________________
Not signed                                                        STARe SW 16.40