File: Example Date/TGA Me/!$YN039.txt
                                                                04.12.2024 15:29
________________________________________________________________________________

Curve Name:
  !$YN039
  Sample Weight
Curve Values:
          Index              t             Ts             Tr          Value
                           [s]           [°C]           [°C]            [%]
              0              0         39.946         25.000        99.9787
             32             32         43.923         30.333        101.739
             64             64         48.761         35.667        101.945
             96             96         53.640         41.000         102.09
            128            128         58.597         46.333        102.204
            160            160         63.593         51.667          102.3
            192            192         68.667         57.000        102.383
            224            224         73.773         62.333        102.466
            256            256         78.917         67.667        102.543
            288            288         84.110         73.000        102.618
            320            320         89.300         78.333        102.687
            352            352         94.406         83.667        102.752
            384            384         99.159         89.000        102.815
            416            416        104.736         94.333        102.848
            448            448        110.281         99.667         102.89
            480            480        115.748        105.000        102.939
            512            512        121.208        110.333         102.99
            544            544        126.661        115.667        103.045
            576            576        132.117        121.000        103.103
            608            608        137.573        126.333        103.161
            640            640        143.033        131.667         103.22
            672            672        148.496        137.000         103.28
            704            704        153.968        142.333        103.337
            736            736        159.425        147.667        103.398
            768            768        164.910        153.000        103.455
            800            800        170.401        158.333        103.512
            832            832        175.890        163.667        103.569
            864            864        181.368        169.000        103.625
            896            896        186.872        174.333         103.68
            928            928        192.372        179.667        103.732
            960            960        197.850        185.000        103.783
            992            992        203.344        190.333        103.832
           1024           1024        208.852        195.667        103.878
           1056           1056        214.351        201.000         103.92
           1088           1088        219.845        206.333         103.96
           1120           1120        225.346        211.667        103.994
           1152           1152        230.841        217.000        104.023
           1184           1184        236.340        222.333        104.049
           1216           1216        241.832        227.667         104.07
           1248           1248        247.329        233.000        104.088
           1280           1280        252.838        238.333        104.098
           1312           1312        258.339        243.667        104.104
           1344           1344        263.830        249.000        104.102
           1376           1376        269.328        254.333        104.096
           1408           1408        274.831        259.667        104.078
           1440           1440        280.321        265.000        104.054
           1472           1472        285.807        270.333        104.018
           1504           1504        291.282        275.667        103.971
           1536           1536        296.774        281.000        103.912
           1568           1568        302.240        286.333        103.845
           1600           1600        307.711        291.667        103.767
           1632           1632        313.194        297.000        103.681
           1664           1664        318.669        302.333         103.59
           1696           1696        324.125        307.667        103.497
           1728           1728        329.595        313.000        103.402
           1760           1760        335.055        318.333        103.304
           1792           1792        340.520        323.667        103.197
           1824           1824        345.989        329.000        103.065
           1856           1856        351.447        334.333        102.897
           1888           1888        356.918        339.667        102.686
           1920           1920        362.389        345.000        102.417
           1952           1952        367.863        350.333        102.082
           1984           1984        373.329        355.667        101.655
           2016           2016        378.802        361.000        101.118
           2048           2048        384.278        366.333        100.456
           2080           2080        389.767        371.667         99.656
           2112           2112        395.250        377.000        98.6974
           2144           2144        400.715        382.333        97.5508
           2176           2176        406.180        387.667        96.1823
           2208           2208        411.578        393.000        94.5234
           2240           2240        416.984        398.333         92.474
           2272           2272        422.367        403.667        89.9004
           2304           2304        427.761        409.000        86.6577
           2336           2336        433.185        414.333        82.6387
           2368           2368        438.612        419.667        77.7065
           2400           2400        444.056        425.000        71.6798
           2432           2432        449.498        430.333        64.6253
           2464           2464        454.958        435.667        56.5798
           2496           2496        460.412        441.000        47.5332
           2528           2528        465.886        446.333        37.7356
           2560           2560        471.360        451.667        27.9071
           2592           2592        476.868        457.000        19.1449
           2624           2624        482.395        462.333        12.5626
           2656           2656        487.951        467.667        8.65889
           2688           2688        493.493        473.000        7.02966
           2720           2720        499.069        478.333        6.62865
           2752           2752        504.435        483.667        6.58096
           2784           2784        509.790        489.000        6.58324
           2816           2816        515.156        494.333        6.59292
           2848           2848        520.531        499.667        6.60687
           2880           2880        525.904        505.000        6.62532
           2912           2912        531.301        510.333         6.6418
           2944           2944        536.684        515.667        6.65925
           2976           2976        542.086        521.000        6.67193
           3008           3008        547.491        526.333        6.68453
           3040           3040        552.895        531.667        6.69743
           3072           3072        558.303        537.000        6.70683
           3104           3104        563.701        542.333        6.71537
           3136           3136        569.125        547.667        6.72458

Results:
  Step	-95.8807 %
  	-8.0156 mg
  Onset	430.38 °C
  Inflect. Pt.	467.25 °C
  Endset	483.05 °C
  Midpoint	455.77 °C
  Angle Midpoint	456.42 °C

Sample:
  YN039, 8.3600 mg

________________________________________________________________________________
Not signed                                                        STARe SW 16.40