File: Example Date/TGA Me/!$YN041.txt
                                                                04.12.2024 15:31
________________________________________________________________________________

Curve Name:
  !$YN041
  Sample Weight
Curve Values:
          Index              t             Ts             Tr          Value
                           [s]           [°C]           [°C]            [%]
              0              0         39.911         25.000        101.324
             32             32         43.899         30.333        103.897
             64             64         48.751         35.667        104.181
             96             96         53.624         41.000         104.37
            128            128         58.565         46.333        104.522
            160            160         63.555         51.667        104.646
            192            192         68.590         57.000        104.753
            224            224         73.680         62.333        104.852
            256            256         78.762         67.667        104.946
            288            288         83.595         73.000        105.047
            320            320         89.074         78.333        105.123
            352            352         94.460         83.667        105.215
            384            384         99.842         89.000        105.311
            416            416        105.211         94.333        105.402
            448            448        110.592         99.667        105.492
            480            480        115.987        105.000        105.587
            512            512        121.406        110.333        105.679
            544            544        126.815        115.667        105.766
            576            576        132.245        121.000        105.855
            608            608        137.675        126.333        105.944
            640            640        143.115        131.667        106.031
            672            672        148.581        137.000        106.117
            704            704        154.042        142.333        106.201
            736            736        159.510        147.667        106.282
            768            768        164.972        153.000        106.364
            800            800        170.457        158.333        106.443
            832            832        175.932        163.667        106.518
            864            864        181.422        169.000        106.593
            896            896        186.911        174.333        106.666
            928            928        192.417        179.667        106.731
            960            960        197.919        185.000        106.792
            992            992        203.398        190.333         106.85
           1024           1024        208.898        195.667        106.902
           1056           1056        214.392        201.000        106.946
           1088           1088        219.893        206.333        106.983
           1120           1120        225.397        211.667        107.018
           1152           1152        230.898        217.000         107.04
           1184           1184        236.398        222.333         107.06
           1216           1216        241.898        227.667         107.07
           1248           1248        247.400        233.000        107.073
           1280           1280        252.902        238.333        107.075
           1312           1312        258.398        243.667        107.064
           1344           1344        263.874        249.000        107.048
           1376           1376        269.390        254.333        107.032
           1408           1408        274.873        259.667        107.001
           1440           1440        280.362        265.000        106.967
           1472           1472        285.849        270.333        106.924
           1504           1504        291.333        275.667         106.87
           1536           1536        296.815        281.000          106.8
           1568           1568        302.287        286.333        106.718
           1600           1600        307.759        291.667        106.626
           1632           1632        313.219        297.000        106.522
           1664           1664        318.696        302.333        106.416
           1696           1696        324.168        307.667        106.306
           1728           1728        329.637        313.000        106.195
           1760           1760        335.093        318.333        106.083
           1792           1792        340.566        323.667        105.961
           1824           1824        346.025        329.000        105.815
           1856           1856        351.480        334.333        105.635
           1888           1888        356.953        339.667        105.414
           1920           1920        362.420        345.000        105.145
           1952           1952        367.881        350.333        104.821
           1984           1984        373.340        355.667         104.43
           2016           2016        378.801        361.000         103.96
           2048           2048        384.270        366.333        103.386
           2080           2080        389.733        371.667        102.686
           2112           2112        395.201        377.000        101.822
           2144           2144        400.687        382.333         100.74
           2176           2176        406.162        387.667        99.3662
           2208           2208        411.614        393.000        97.5922
           2240           2240        416.998        398.333        95.2376
           2272           2272        422.394        403.667        92.0389
           2304           2304        427.810        409.000        87.7466
           2336           2336        433.241        414.333        82.1378
           2368           2368        438.684        419.667        75.2627
           2400           2400        444.138        425.000        67.2136
           2432           2432        449.578        430.333        58.1149
           2464           2464        455.048        435.667        48.3562
           2496           2496        460.523        441.000        38.4299
           2528           2528        466.008        446.333        29.1064
           2560           2560        471.510        451.667        21.3253
           2592           2592        477.035        457.000        15.8939
           2624           2624        482.566        462.333        12.9362
           2656           2656        488.099        467.667         11.739
           2688           2688        493.645        473.000        11.3876
           2720           2720        499.048        478.333        11.3131
           2752           2752        504.439        483.667        11.3033
           2784           2784        509.839        489.000        11.3175
           2816           2816        515.227        494.333        11.3323
           2848           2848        520.603        499.667        11.3557
           2880           2880        525.996        505.000        11.3828
           2912           2912        531.390        510.333        11.4068
           2944           2944        536.790        515.667        11.4296
           2976           2976        542.195        521.000        11.4504
           3008           3008        547.573        526.333        11.4694
           3040           3040        552.974        531.667        11.4854
           3072           3072        558.373        537.000        11.5007
           3104           3104        563.779        542.333        11.5109
           3136           3136        569.187        547.667        11.5175

Results:
  Step	-93.4414 %
  	-5.3355 mg
  Onset	424.35 °C
  Inflect. Pt.	456.93 °C
  Endset	475.32 °C
  Midpoint	449.03 °C
  Angle Midpoint	449.83 °C

Sample:
  YN041, 5.7100 mg

________________________________________________________________________________
Not signed                                                        STARe SW 16.40