File: Example Date/TGA Me/!$YN046.txt
                                                                05.12.2024 20:05
________________________________________________________________________________

Curve Name:
  !$YN046
  Sample Weight
Curve Values:
          Index              t             Ts             Tr          Value
                           [s]           [°C]           [°C]            [%]
              0              0         35.413         25.000         100.26
             32             32         39.412         30.333        101.748
             64             64         44.265         35.667        101.911
             96             96         49.182         41.000        102.025
            128            128         54.103         46.333        102.113
            160            160         59.107         51.667        102.189
            192            192         64.160         57.000        102.256
            224            224         69.257         62.333        102.317
            256            256         74.357         67.667        102.373
            288            288         79.347         73.000        102.427
            320            320         83.963         78.333        102.484
            352            352         89.668         83.667        102.522
            384            384         95.159         89.000        102.563
            416            416        100.595         94.333        102.607
            448            448        106.004         99.667        102.658
            480            480        111.435        105.000        102.702
            512            512        116.877        110.333        102.747
            544            544        122.314        115.667        102.795
            576            576        127.755        121.000        102.843
            608            608        133.209        126.333        102.892
            640            640        138.667        131.667        102.938
            672            672        144.144        137.000        102.987
            704            704        149.619        142.333        103.038
            736            736        155.082        147.667        103.081
            768            768        160.567        153.000        103.122
            800            800        166.055        158.333        103.168
            832            832        171.544        163.667        103.209
            864            864        177.032        169.000        103.252
            896            896        182.534        174.333        103.291
            928            928        188.029        179.667         103.33
            960            960        193.531        185.000        103.366
            992            992        199.031        190.333          103.4
           1024           1024        204.526        195.667        103.427
           1056           1056        210.032        201.000        103.454
           1088           1088        215.544        206.333        103.477
           1120           1120        221.046        211.667         103.49
           1152           1152        226.553        217.000        103.504
           1184           1184        232.050        222.333         103.51
           1216           1216        237.553        227.667        103.511
           1248           1248        243.064        233.000        103.504
           1280           1280        248.555        238.333        103.496
           1312           1312        254.053        243.667        103.478
           1344           1344        259.551        249.000        103.455
           1376           1376        265.038        254.333        103.425
           1408           1408        270.537        259.667         103.39
           1440           1440        276.024        265.000        103.343
           1472           1472        281.503        270.333        103.291
           1504           1504        286.995        275.667        103.231
           1536           1536        292.476        281.000        103.157
           1568           1568        297.955        286.333        103.063
           1600           1600        303.415        291.667        102.962
           1632           1632        308.894        297.000        102.847
           1664           1664        314.372        302.333         102.73
           1696           1696        319.835        307.667         102.61
           1728           1728        325.302        313.000        102.492
           1760           1760        330.760        318.333        102.374
           1792           1792        336.229        323.667        102.251
           1824           1824        341.681        329.000        102.112
           1856           1856        347.150        334.333        101.949
           1888           1888        352.613        339.667        101.745
           1920           1920        358.079        345.000        101.507
           1952           1952        363.543        350.333        101.218
           1984           1984        369.005        355.667        100.862
           2016           2016        374.455        361.000         100.43
           2048           2048        379.914        366.333        99.9013
           2080           2080        385.364        371.667        99.2412
           2112           2112        390.836        377.000        98.4184
           2144           2144        396.255        382.333        97.3773
           2176           2176        401.693        387.667        96.0456
           2208           2208        407.115        393.000         94.307
           2240           2240        412.556        398.333        92.0007
           2272           2272        417.998        403.667        88.8741
           2304           2304        423.424        409.000        84.7481
           2336           2336        428.872        414.333         79.483
           2368           2368        434.321        419.667        73.0283
           2400           2400        439.758        425.000        65.6243
           2432           2432        445.213        430.333        57.4335
           2464           2464        450.655        435.667         48.628
           2496           2496        456.137        441.000        39.4427
           2528           2528        461.604        446.333        30.2764
           2560           2560        467.111        451.667        21.6424
           2592           2592        472.623        457.000         14.325
           2624           2624        478.188        462.333         9.1331
           2656           2656        483.754        467.667        6.40133
           2688           2688        489.310        473.000        5.58082
           2720           2720        494.887        478.333        5.47777
           2752           2752        500.337        483.667         5.4714
           2784           2784        505.788        489.000        5.47505
           2816           2816        511.205        494.333         5.4825
           2848           2848        516.614        499.667        5.49822
           2880           2880        522.013        505.000        5.51524
           2912           2912        527.400        510.333          5.534
           2944           2944        532.786        515.667        5.55441
           2976           2976        538.179        521.000        5.57062
           3008           3008        543.567        526.333        5.58478
           3040           3040        548.965        531.667        5.59943
           3072           3072        554.352        537.000        5.60608
           3104           3104        559.754        542.333        5.61447
           3136           3136        565.147        547.667        5.62119

Results:
  Step	-95.1033 %
  	-9.1965 mg
  Onset	420.23 °C
  Inflect. Pt.	454.77 °C
  Endset	476.09 °C
  Midpoint	447.35 °C
  Angle Midpoint	448.16 °C

Sample:
  YN046, 9.6700 mg

________________________________________________________________________________
Not signed                                                        STARe SW 16.40