File: Example Date/TGA Me/!$YN019.txt
                                                                04.12.2024 12:58
________________________________________________________________________________

Curve Name:
  !$YN019
  Sample Weight
Curve Values:
          Index              t             Ts             Tr          Value
                           [s]           [°C]           [°C]            [%]
              0              0         39.933         25.000        99.8721
             32             32         43.961         30.333        102.073
             64             64         48.861         35.667        102.277
             96             96         53.770         41.000        102.422
            128            128         58.727         46.333        102.546
            160            160         63.728         51.667        102.657
            192            192         68.791         57.000        102.756
            224            224         73.866         62.333        102.844
            256            256         79.003         67.667        102.926
            288            288         84.158         73.000        103.002
            320            320         89.183         78.333        103.076
            352            352         94.312         83.667        103.113
            384            384         99.814         89.000        103.154
            416            416        105.230         94.333        103.207
            448            448        110.649         99.667        103.267
            480            480        116.055        105.000        103.328
            512            512        121.484        110.333         103.39
            544            544        126.914        115.667        103.459
            576            576        132.345        121.000        103.529
            608            608        137.772        126.333        103.596
            640            640        143.225        131.667        103.662
            672            672        148.679        137.000        103.729
            704            704        154.148        142.333        103.794
            736            736        159.611        147.667        103.859
            768            768        165.077        153.000         103.92
            800            800        170.574        158.333        103.989
            832            832        176.056        163.667        104.055
            864            864        181.548        169.000        104.123
            896            896        187.047        174.333        104.192
            928            928        192.556        179.667        104.256
            960            960        198.042        185.000        104.316
            992            992        203.529        190.333        104.368
           1024           1024        209.018        195.667        104.415
           1056           1056        214.523        201.000        104.453
           1088           1088        220.017        206.333        104.487
           1120           1120        225.524        211.667         104.52
           1152           1152        231.037        217.000         104.55
           1184           1184        236.549        222.333        104.571
           1216           1216        242.064        227.667        104.587
           1248           1248        247.564        233.000        104.587
           1280           1280        253.083        238.333        104.577
           1312           1312        258.590        243.667        104.555
           1344           1344        264.109        249.000        104.516
           1376           1376        269.609        254.333         104.45
           1408           1408        275.120        259.667        104.357
           1440           1440        280.631        265.000        104.228
           1472           1472        286.125        270.333        104.066
           1504           1504        291.608        275.667        103.873
           1536           1536        297.118        281.000        103.632
           1568           1568        302.636        286.333        103.312
           1600           1600        308.166        291.667        102.895
           1632           1632        313.717        297.000        102.378
           1664           1664        319.285        302.333        101.735
           1696           1696        324.892        307.667         100.92
           1728           1728        330.524        313.000        99.8703
           1760           1760        336.204        318.333        98.5508
           1792           1792        341.884        323.667        96.9956
           1824           1824        347.554        329.000        95.2421
           1856           1856        353.192        334.333        93.3179
           1888           1888        358.847        339.667        91.2375
           1920           1920        364.470        345.000        89.0121
           1952           1952        370.057        350.333        86.6583
           1984           1984        375.566        355.667        84.1834
           2016           2016        381.137        361.000        81.5813
           2048           2048        386.730        366.333        78.8265
           2080           2080        392.274        371.667        75.9034
           2112           2112        397.848        377.000         72.784
           2144           2144        403.425        382.333        69.4315
           2176           2176        409.040        387.667        65.7929
           2208           2208        414.691        393.000        61.8097
           2240           2240        420.357        398.333        57.4261
           2272           2272        426.042        403.667        52.5725
           2304           2304        431.721        409.000        47.2929
           2336           2336        437.356        414.333        41.6288
           2368           2368        442.942        419.667        35.6117
           2400           2400        448.317        425.000        29.4817
           2432           2432        453.533        430.333         23.638
           2464           2464        458.543        435.667        18.5296
           2496           2496        463.516        441.000         14.612
           2528           2528        468.270        446.333        12.1212
           2560           2560        472.891        451.667        11.0064
           2592           2592        477.647        457.000          10.76
           2624           2624        482.669        462.333        10.6922
           2656           2656        487.846        467.667        10.6505
           2688           2688        493.122        473.000        10.6251
           2720           2720        498.449        478.333        10.6054
           2752           2752        503.823        483.667        10.5895
           2784           2784        509.214        489.000        10.5721
           2816           2816        514.627        494.333        10.5516
           2848           2848        520.050        499.667        10.5231
           2880           2880        525.475        505.000        10.4848
           2912           2912        530.898        510.333        10.4305
           2944           2944        536.361        515.667        10.3688
           2976           2976        541.810        521.000        10.2916
           3008           3008        547.258        526.333        10.1971
           3040           3040        552.688        531.667        10.0953
           3072           3072        558.133        537.000        9.99168
           3104           3104        563.564        542.333        9.88895
           3136           3136        569.002        547.667        9.78684

Results:
  Step	-91.4880 %
  	-5.9284 mg
  Onset	385.85 °C
  Inflect. Pt.	447.49 °C
  Endset	464.23 °C
  Midpoint	420.18 °C
  Angle Midpoint	421.41 °C

Sample:
  YN019, 6.4800 mg

________________________________________________________________________________
Not signed                                                        STARe SW 16.40