File: Example Date/TGA Me/!$YN042.txt
                                                                04.12.2024 15:33
________________________________________________________________________________

Curve Name:
  !$YN042
  Sample Weight
Curve Values:
          Index              t             Ts             Tr          Value
                           [s]           [°C]           [°C]            [%]
              0              0         39.951         25.000        101.534
             32             32         43.919         30.333        103.759
             64             64         48.747         35.667        104.008
             96             96         53.635         41.000        104.178
            128            128         58.567         46.333        104.306
            160            160         63.528         51.667        104.413
            192            192         68.475         57.000        104.506
            224            224         73.193         62.333        104.593
            256            256         78.661         67.667        104.662
            288            288         83.984         73.000        104.743
            320            320         89.299         78.333        104.824
            352            352         94.632         83.667        104.907
            384            384         99.972         89.000        104.986
            416            416        105.320         94.333        105.068
            448            448        110.698         99.667        105.145
            480            480        116.084        105.000        105.226
            512            512        121.496        110.333        105.304
            544            544        126.910        115.667        105.379
            576            576        132.335        121.000        105.456
            608            608        137.768        126.333         105.53
            640            640        143.199        131.667        105.603
            672            672        148.657        137.000        105.675
            704            704        154.128        142.333        105.743
            736            736        159.589        147.667        105.809
            768            768        165.063        153.000        105.874
            800            800        170.545        158.333        105.935
            832            832        176.028        163.667        105.995
            864            864        181.509        169.000        106.048
            896            896        186.988        174.333        106.098
            928            928        192.491        179.667        106.146
            960            960        197.977        185.000        106.185
            992            992        203.469        190.333        106.221
           1024           1024        208.955        195.667        106.247
           1056           1056        214.442        201.000        106.268
           1088           1088        219.951        206.333        106.282
           1120           1120        225.455        211.667        106.285
           1152           1152        230.966        217.000        106.285
           1184           1184        236.469        222.333        106.278
           1216           1216        241.966        227.667        106.267
           1248           1248        247.457        233.000         106.25
           1280           1280        252.953        238.333        106.231
           1312           1312        258.456        243.667        106.207
           1344           1344        263.939        249.000        106.178
           1376           1376        269.432        254.333        106.145
           1408           1408        274.932        259.667        106.104
           1440           1440        280.427        265.000        106.057
           1472           1472        285.900        270.333        105.996
           1504           1504        291.390        275.667        105.925
           1536           1536        296.872        281.000        105.843
           1568           1568        302.337        286.333        105.753
           1600           1600        307.821        291.667        105.656
           1632           1632        313.292        297.000        105.554
           1664           1664        318.758        302.333        105.453
           1696           1696        324.233        307.667        105.353
           1728           1728        329.694        313.000        105.255
           1760           1760        335.174        318.333        105.152
           1792           1792        340.638        323.667        105.042
           1824           1824        346.077        329.000        104.909
           1856           1856        351.545        334.333        104.747
           1888           1888        357.007        339.667        104.554
           1920           1920        362.475        345.000        104.318
           1952           1952        367.938        350.333        104.034
           1984           1984        373.389        355.667         103.69
           2016           2016        378.852        361.000        103.269
           2048           2048        384.325        366.333        102.748
           2080           2080        389.790        371.667        102.101
           2112           2112        395.282        377.000        101.277
           2144           2144        400.795        382.333        100.215
           2176           2176        406.279        387.667        98.8131
           2208           2208        411.702        393.000        96.9024
           2240           2240        417.027        398.333        94.1892
           2272           2272        422.419        403.667        90.2842
           2304           2304        427.833        409.000        84.9044
           2336           2336        433.251        414.333        77.8962
           2368           2368        438.690        419.667        69.2308
           2400           2400        444.138        425.000        59.1975
           2432           2432        449.582        430.333        48.3634
           2464           2464        455.063        435.667        37.4759
           2496           2496        460.537        441.000        27.4998
           2528           2528        466.048        446.333        19.4213
           2560           2560        471.573        451.667        13.9073
           2592           2592        477.112        457.000        10.9999
           2624           2624        482.670        462.333        9.86116
           2656           2656        488.202        467.667        9.53868
           2688           2688        493.618        473.000          9.473
           2720           2720        499.029        478.333        9.45977
           2752           2752        504.420        483.667        9.46719
           2784           2784        509.811        489.000        9.48313
           2816           2816        515.198        494.333        9.50442
           2848           2848        520.593        499.667        9.53007
           2880           2880        525.985        505.000        9.55844
           2912           2912        531.361        510.333        9.58831
           2944           2944        536.760        515.667        9.61305
           2976           2976        542.148        521.000        9.63883
           3008           3008        547.548        526.333        9.66045
           3040           3040        552.946        531.667        9.68133
           3072           3072        558.347        537.000        9.69375
           3104           3104        563.766        542.333        9.70321
           3136           3136        569.163        547.667        9.70862

Results:
  Step	-94.3259 %
  	-6.1312 mg
  Onset	422.49 °C
  Inflect. Pt.	449.07 °C
  Endset	468.69 °C
  Midpoint	444.91 °C
  Angle Midpoint	445.64 °C

Sample:
  YN042, 6.5000 mg

________________________________________________________________________________
Not signed                                                        STARe SW 16.40