File: Example Date/TGA Me/!$YN040.txt
                                                                04.12.2024 15:30
________________________________________________________________________________

Curve Name:
  !$YN040
  Sample Weight
Curve Values:
          Index              t             Ts             Tr          Value
                           [s]           [°C]           [°C]            [%]
              0              0         39.876         25.000        100.487
             32             32         43.905         30.333        102.114
             64             64         48.779         35.667        102.299
             96             96         53.667         41.000        102.423
            128            128         58.595         46.333        102.524
            160            160         63.605         51.667        102.612
            192            192         68.637         57.000        102.694
            224            224         73.741         62.333        102.767
            256            256         78.885         67.667        102.835
            288            288         84.025         73.000        102.897
            320            320         89.140         78.333        102.955
            352            352         93.765         83.667        103.018
            384            384         99.234         89.000        103.035
            416            416        104.806         94.333        103.072
            448            448        110.286         99.667        103.116
            480            480        115.730        105.000        103.163
            512            512        121.196        110.333        103.209
            544            544        126.643        115.667        103.257
            576            576        132.086        121.000        103.307
            608            608        137.553        126.333         103.36
            640            640        143.010        131.667        103.412
            672            672        148.476        137.000        103.466
            704            704        153.940        142.333        103.519
            736            736        159.415        147.667        103.572
            768            768        164.891        153.000        103.623
            800            800        170.381        158.333        103.675
            832            832        175.875        163.667        103.724
            864            864        181.367        169.000        103.775
            896            896        186.862        174.333        103.823
            928            928        192.362        179.667        103.867
            960            960        197.852        185.000        103.912
            992            992        203.331        190.333        103.952
           1024           1024        208.834        195.667        103.991
           1056           1056        214.338        201.000        104.024
           1088           1088        219.857        206.333        104.054
           1120           1120        225.335        211.667        104.082
           1152           1152        230.842        217.000        104.104
           1184           1184        236.340        222.333        104.124
           1216           1216        241.844        227.667        104.136
           1248           1248        247.351        233.000        104.144
           1280           1280        252.840        238.333        104.141
           1312           1312        258.340        243.667        104.136
           1344           1344        263.834        249.000        104.124
           1376           1376        269.326        254.333        104.102
           1408           1408        274.817        259.667        104.075
           1440           1440        280.308        265.000        104.039
           1472           1472        285.788        270.333        103.992
           1504           1504        291.271        275.667        103.933
           1536           1536        296.752        281.000        103.862
           1568           1568        302.226        286.333        103.781
           1600           1600        307.716        291.667         103.69
           1632           1632        313.180        297.000         103.59
           1664           1664        318.638        302.333        103.484
           1696           1696        324.113        307.667        103.378
           1728           1728        329.573        313.000        103.273
           1760           1760        335.039        318.333        103.158
           1792           1792        340.511        323.667        103.029
           1824           1824        345.967        329.000        102.876
           1856           1856        351.427        334.333        102.687
           1888           1888        356.861        339.667         102.45
           1920           1920        362.286        345.000        102.165
           1952           1952        367.763        350.333        101.821
           1984           1984        373.243        355.667        101.405
           2016           2016        378.704        361.000          100.9
           2048           2048        384.192        366.333        100.288
           2080           2080        389.660        371.667        99.5404
           2112           2112        395.103        377.000        98.6222
           2144           2144        400.569        382.333        97.4888
           2176           2176        405.999        387.667        96.0807
           2208           2208        411.399        393.000        94.3008
           2240           2240        416.833        398.333        92.0319
           2272           2272        422.258        403.667        89.1322
           2304           2304        427.698        409.000        85.4667
           2336           2336        433.138        414.333        80.9473
           2368           2368        438.579        419.667        75.5527
           2400           2400        444.022        425.000        69.2102
           2432           2432        449.472        430.333        62.0138
           2464           2464        454.925        435.667        53.9621
           2496           2496        460.385        441.000        45.0658
           2528           2528        465.858        446.333         35.553
           2560           2560        471.341        451.667        26.0387
           2592           2592        476.847        457.000        17.5499
           2624           2624        482.400        462.333        11.2473
           2656           2656        487.965        467.667        7.72595
           2688           2688        493.522        473.000        6.54188
           2720           2720        499.091        478.333        6.37157
           2752           2752        504.522        483.667        6.36068
           2784           2784        509.936        489.000        6.36317
           2816           2816        515.319        494.333        6.37469
           2848           2848        520.716        499.667        6.38837
           2880           2880        526.104        505.000        6.40403
           2912           2912        531.501        510.333        6.42108
           2944           2944        536.903        515.667        6.43813
           2976           2976        542.287        521.000        6.45287
           3008           3008        547.680        526.333        6.46565
           3040           3040        553.084        531.667        6.47836
           3072           3072        558.492        537.000        6.48802
           3104           3104        563.894        542.333        6.49369
           3136           3136        569.315        547.667         6.5001

Results:
  Step	-95.4301 %
  	-8.7700 mg
  Onset	428.50 °C
  Inflect. Pt.	466.70 °C
  Endset	482.37 °C
  Midpoint	454.18 °C
  Angle Midpoint	455.06 °C

Sample:
  YN040, 9.1900 mg

________________________________________________________________________________
Not signed                                                        STARe SW 16.40