File: Example Date/TGA Me/!$YN038.txt
                                                                04.12.2024 12:57
________________________________________________________________________________

Curve Name:
  !$YN038
  Sample Weight
Curve Values:
          Index              t             Ts             Tr          Value
                           [s]           [°C]           [°C]            [%]
              0              0         39.982         25.000        99.3525
             32             32         43.979         30.333        100.675
             64             64         48.820         35.667        100.818
             96             96         53.681         41.000        100.914
            128            128         58.591         46.333        100.994
            160            160         63.534         51.667        101.064
            192            192         68.515         57.000        101.129
            224            224         73.559         62.333        101.185
            256            256         78.542         67.667        101.242
            288            288         83.189         73.000        101.294
            320            320         88.713         78.333        101.313
            352            352         94.191         83.667        101.337
            384            384         99.602         89.000        101.365
            416            416        105.005         94.333        101.394
            448            448        110.422         99.667        101.421
            480            480        115.841        105.000        101.452
            512            512        121.256        110.333        101.486
            544            544        126.692        115.667        101.518
            576            576        132.118        121.000        101.558
            608            608        137.556        126.333         101.59
            640            640        143.013        131.667        101.625
            672            672        148.464        137.000        101.663
            704            704        153.948        142.333        101.702
            736            736        159.401        147.667        101.748
            768            768        164.897        153.000        101.787
            800            800        170.360        158.333        101.825
            832            832        175.849        163.667        101.861
            864            864        181.346        169.000        101.898
            896            896        186.825        174.333        101.931
            928            928        192.346        179.667         101.96
            960            960        197.832        185.000        101.982
            992            992        203.299        190.333        102.002
           1024           1024        208.799        195.667        102.019
           1056           1056        214.302        201.000        102.033
           1088           1088        219.787        206.333         102.04
           1120           1120        225.296        211.667        102.046
           1152           1152        230.806        217.000        102.041
           1184           1184        236.305        222.333        102.038
           1216           1216        241.800        227.667        102.023
           1248           1248        247.312        233.000        102.002
           1280           1280        252.825        238.333        101.971
           1312           1312        258.318        243.667        101.934
           1344           1344        263.821        249.000        101.883
           1376           1376        269.307        254.333        101.825
           1408           1408        274.805        259.667        101.755
           1440           1440        280.267        265.000        101.674
           1472           1472        285.777        270.333         101.58
           1504           1504        291.273        275.667        101.469
           1536           1536        296.784        281.000        101.345
           1568           1568        302.278        286.333        101.205
           1600           1600        307.783        291.667        101.058
           1632           1632        313.277        297.000        100.903
           1664           1664        318.768        302.333         100.74
           1696           1696        324.262        307.667        100.562
           1728           1728        329.761        313.000        100.355
           1760           1760        335.260        318.333        100.102
           1792           1792        340.786        323.667        99.7817
           1824           1824        346.311        329.000        99.3744
           1856           1856        351.863        334.333        98.8611
           1888           1888        357.397        339.667        98.2332
           1920           1920        362.911        345.000        97.4858
           1952           1952        368.318        350.333        96.6195
           1984           1984        373.838        355.667          95.63
           2016           2016        379.371        361.000        94.5248
           2048           2048        384.867        366.333         93.291
           2080           2080        390.373        371.667        91.9054
           2112           2112        395.877        377.000        90.3254
           2144           2144        401.419        382.333        88.4868
           2176           2176        406.955        387.667        86.2906
           2208           2208        412.388        393.000        83.6023
           2240           2240        417.778        398.333        80.2413
           2272           2272        423.077        403.667        76.0309
           2304           2304        428.160        409.000        70.8129
           2336           2336        433.457        414.333        64.5229
           2368           2368        438.838        419.667        57.2116
           2400           2400        444.255        425.000        48.9582
           2432           2432        449.686        430.333        39.9825
           2464           2464        455.133        435.667        30.7899
           2496           2496        460.611        441.000        22.0947
           2528           2528        466.104        446.333        14.8013
           2560           2560        471.635        451.667        9.65691
           2592           2592        477.514        457.000        6.82847
           2624           2624        482.942        462.333        5.80455
           2656           2656        488.128        467.667        5.59794
           2688           2688        493.400        473.000        5.57352
           2720           2720        498.730        478.333        5.57263
           2752           2752        504.070        483.667        5.57653
           2784           2784        509.419        489.000         5.5845
           2816           2816        514.793        494.333        5.58757
           2848           2848        520.178        499.667        5.59587
           2880           2880        525.581        505.000        5.60341
           2912           2912        530.977        510.333        5.61109
           2944           2944        536.369        515.667        5.61876
           2976           2976        541.775        521.000        5.62611
           3008           3008        547.198        526.333        5.63397
           3040           3040        552.603        531.667        5.63666
           3072           3072        558.034        537.000        5.63933
           3104           3104        563.459        542.333        5.63787
           3136           3136        568.891        547.667        5.63388

Results:
  Step	-93.2662 %
  	-10.4178 mg
  Onset	415.06 °C
  Inflect. Pt.	450.36 °C
  Endset	469.94 °C
  Midpoint	441.32 °C
  Angle Midpoint	442.39 °C

Sample:
  YN038, 11.1700 mg

________________________________________________________________________________
Not signed                                                        STARe SW 16.40